ALV-7004/USB
Date :	"9/27/2023"
Time :	"2:15:10 PM"
Samplename : 	""
SampMemo(0) : 	""
SampMemo(1) : 	""
SampMemo(2) : 	""
SampMemo(3) : 	""
SampMemo(4) : 	""
SampMemo(5) : 	""
SampMemo(6) : 	""
SampMemo(7) : 	""
SampMemo(8) : 	""
SampMemo(9) : 	""
Temperature [K] :	     298.16000
Viscosity [cp]  :	       0.89000
Refractive Index:	       1.33200
Wavelength [nm] :	     632.80000
Angle [°]       :	      90.00000
Duration [s]    :	        30
FloatDur [ms]   :	        29989
Stop TP [ms]   :	    177385
Runs            :	         1
Mode            :	"C-CH0/1 "
MeanCR0 [kHz]   :	      47.75564
MeanCR1 [kHz]   :	      31.28382
MeanCR2 [kHz]   :	       0.00000
MeanCR3 [kHz]   :	       0.00000

"Correlation"
  2.50000E-005	  1.43018E+000	  1.40786E+000	  0.00000E+000	  0.00000E+000
  5.00000E-005	  1.38732E+000	  1.43107E+000	  0.00000E+000	  0.00000E+000
  7.50000E-005	  1.42571E+000	  1.43464E+000	  0.00000E+000	  0.00000E+000
  1.00000E-004	  1.41411E+000	  1.41768E+000	  0.00000E+000	  0.00000E+000
  1.25000E-004	  1.45160E+000	  1.37125E+000	  0.00000E+000	  0.00000E+000
  1.50000E-004	  1.40071E+000	  1.36322E+000	  0.00000E+000	  0.00000E+000
  1.75000E-004	  1.26144E+000	  1.28644E+000	  0.00000E+000	  0.00000E+000
  2.00000E-004	  1.37036E+000	  1.28822E+000	  0.00000E+000	  0.00000E+000
  2.25000E-004	  1.38821E+000	  1.29358E+000	  0.00000E+000	  0.00000E+000
  2.50000E-004	  1.29626E+000	  1.30161E+000	  0.00000E+000	  0.00000E+000
  2.75000E-004	  1.27215E+000	  1.22037E+000	  0.00000E+000	  0.00000E+000
  3.00000E-004	  1.26055E+000	  1.25340E+000	  0.00000E+000	  0.00000E+000
  3.25000E-004	  1.27215E+000	  1.20430E+000	  0.00000E+000	  0.00000E+000
  3.50000E-004	  1.30519E+000	  1.26412E+000	  0.00000E+000	  0.00000E+000
  3.75000E-004	  1.24001E+000	  1.19269E+000	  0.00000E+000	  0.00000E+000
  4.00000E-004	  1.22885E+000	  1.18555E+000	  0.00000E+000	  0.00000E+000
  4.50000E-004	  1.23064E+000	  1.18689E+000	  0.00000E+000	  0.00000E+000
  5.00000E-004	  1.16948E+000	  1.16055E+000	  0.00000E+000	  0.00000E+000
  5.50000E-004	  1.15966E+000	  1.20876E+000	  0.00000E+000	  0.00000E+000
  6.00000E-004	  1.11948E+000	  1.19671E+000	  0.00000E+000	  0.00000E+000
  6.50000E-004	  1.16234E+000	  1.17261E+000	  0.00000E+000	  0.00000E+000
  7.00000E-004	  1.12886E+000	  1.07440E+000	  0.00000E+000	  0.00000E+000
  7.50000E-004	  1.07797E+000	  1.13957E+000	  0.00000E+000	  0.00000E+000
  8.00000E-004	  1.10810E+000	  1.11569E+000	  0.00000E+000	  0.00000E+000
  9.00000E-004	  1.11882E+000	  1.11324E+000	  0.00000E+000	  0.00000E+000
  1.00000E-003	  1.10408E+000	  1.09270E+000	  0.00000E+000	  0.00000E+000
  1.10000E-003	  1.08132E+000	  1.06815E+000	  0.00000E+000	  0.00000E+000
  1.20000E-003	  1.04672E+000	  1.04270E+000	  0.00000E+000	  0.00000E+000
  1.30000E-003	  1.02485E+000	  1.06458E+000	  0.00000E+000	  0.00000E+000
  1.40000E-003	  1.08801E+000	  1.03154E+000	  0.00000E+000	  0.00000E+000
  1.50000E-003	  1.03333E+000	  1.01592E+000	  0.00000E+000	  0.00000E+000
  1.60000E-003	  1.02306E+000	  1.00498E+000	  0.00000E+000	  0.00000E+000
  1.80000E-003	  1.01090E+000	  1.01235E+000	  0.00000E+000	  0.00000E+000
  2.00000E-003	  9.96614E-001	  1.00956E+000	  0.00000E+000	  0.00000E+000
  2.20000E-003	  9.84004E-001	  9.95723E-001	  0.00000E+000	  0.00000E+000
  2.40000E-003	  9.52086E-001	  9.93156E-001	  0.00000E+000	  0.00000E+000
  2.60000E-003	  9.72286E-001	  9.66261E-001	  0.00000E+000	  0.00000E+000
  2.80000E-003	  9.31664E-001	  9.48182E-001	  0.00000E+000	  0.00000E+000
  3.00000E-003	  9.45725E-001	  9.33562E-001	  0.00000E+000	  0.00000E+000
  3.20000E-003	  9.34342E-001	  9.33730E-001	  0.00000E+000	  0.00000E+000
  3.60000E-003	  9.28595E-001	  9.17492E-001	  0.00000E+000	  0.00000E+000
  4.00000E-003	  9.16486E-001	  9.06555E-001	  0.00000E+000	  0.00000E+000
  4.40000E-003	  9.17546E-001	  9.21230E-001	  0.00000E+000	  0.00000E+000
  4.80000E-003	  9.09400E-001	  8.91992E-001	  0.00000E+000	  0.00000E+000
  5.20000E-003	  8.77706E-001	  8.90206E-001	  0.00000E+000	  0.00000E+000
  5.60000E-003	  8.93664E-001	  8.83733E-001	  0.00000E+000	  0.00000E+000
  6.00000E-003	  8.90595E-001	  8.81278E-001	  0.00000E+000	  0.00000E+000
  6.40000E-003	  8.88197E-001	  8.76618E-001	  0.00000E+000	  0.00000E+000
  7.20000E-003	  8.64956E-001	  8.46849E-001	  0.00000E+000	  0.00000E+000
  8.00000E-003	  8.46238E-001	  8.48830E-001	  0.00000E+000	  0.00000E+000
  8.80000E-003	  8.46016E-001	  8.49863E-001	  0.00000E+000	  0.00000E+000
  9.60000E-003	  8.45040E-001	  8.28296E-001	  0.00000E+000	  0.00000E+000
  1.04000E-002	  8.30365E-001	  8.25674E-001	  0.00000E+000	  0.00000E+000
  1.12000E-002	  8.20572E-001	  8.25199E-001	  0.00000E+000	  0.00000E+000
  1.20000E-002	  8.06594E-001	  8.20735E-001	  0.00000E+000	  0.00000E+000
  1.28000E-002	  8.10140E-001	  8.12031E-001	  0.00000E+000	  0.00000E+000
  1.44000E-002	  7.86439E-001	  7.96170E-001	  0.00000E+000	  0.00000E+000
  1.60000E-002	  7.90247E-001	  7.79486E-001	  0.00000E+000	  0.00000E+000
  1.76000E-002	  7.71498E-001	  7.80365E-001	  0.00000E+000	  0.00000E+000
  1.92000E-002	  7.54495E-001	  7.61199E-001	  0.00000E+000	  0.00000E+000
  2.08000E-002	  7.49752E-001	  7.57419E-001	  0.00000E+000	  0.00000E+000
  2.24000E-002	  7.52807E-001	  7.33259E-001	  0.00000E+000	  0.00000E+000
  2.40000E-002	  7.35621E-001	  7.37862E-001	  0.00000E+000	  0.00000E+000
  2.56000E-002	  7.34583E-001	  7.22686E-001	  0.00000E+000	  0.00000E+000
  2.88000E-002	  7.08496E-001	  7.18528E-001	  0.00000E+000	  0.00000E+000
  3.20000E-002	  7.01940E-001	  6.91597E-001	  0.00000E+000	  0.00000E+000
  3.52000E-002	  6.80115E-001	  6.78918E-001	  0.00000E+000	  0.00000E+000
  3.84000E-002	  6.62810E-001	  6.62394E-001	  0.00000E+000	  0.00000E+000
  4.16000E-002	  6.46970E-001	  6.47880E-001	  0.00000E+000	  0.00000E+000
  4.48000E-002	  6.33997E-001	  6.35792E-001	  0.00000E+000	  0.00000E+000
  4.80000E-002	  6.22907E-001	  6.24290E-001	  0.00000E+000	  0.00000E+000
  5.12000E-002	  6.13090E-001	  6.09437E-001	  0.00000E+000	  0.00000E+000
  5.76000E-002	  5.90859E-001	  5.86816E-001	  0.00000E+000	  0.00000E+000
  6.40000E-002	  5.68806E-001	  5.69987E-001	  0.00000E+000	  0.00000E+000
  7.04000E-002	  5.52213E-001	  5.46775E-001	  0.00000E+000	  0.00000E+000
  7.68000E-002	  5.32425E-001	  5.30150E-001	  0.00000E+000	  0.00000E+000
  8.32000E-002	  5.19043E-001	  5.14870E-001	  0.00000E+000	  0.00000E+000
  8.96000E-002	  5.01902E-001	  5.02228E-001	  0.00000E+000	  0.00000E+000
  9.60000E-002	  4.92228E-001	  4.90533E-001	  0.00000E+000	  0.00000E+000
  1.02400E-001	  4.74924E-001	  4.73323E-001	  0.00000E+000	  0.00000E+000
  1.15200E-001	  4.51842E-001	  4.46698E-001	  0.00000E+000	  0.00000E+000
  1.28000E-001	  4.31368E-001	  4.22727E-001	  0.00000E+000	  0.00000E+000
  1.40800E-001	  4.06373E-001	  4.06609E-001	  0.00000E+000	  0.00000E+000
  1.53600E-001	  3.94859E-001	  3.88816E-001	  0.00000E+000	  0.00000E+000
  1.66400E-001	  3.76505E-001	  3.69727E-001	  0.00000E+000	  0.00000E+000
  1.79200E-001	  3.59838E-001	  3.55060E-001	  0.00000E+000	  0.00000E+000
  1.92000E-001	  3.46169E-001	  3.46130E-001	  0.00000E+000	  0.00000E+000
  2.04800E-001	  3.30100E-001	  3.33940E-001	  0.00000E+000	  0.00000E+000
  2.30400E-001	  3.09646E-001	  3.08900E-001	  0.00000E+000	  0.00000E+000
  2.56000E-001	  2.91402E-001	  2.93091E-001	  0.00000E+000	  0.00000E+000
  2.81600E-001	  2.80227E-001	  2.73104E-001	  0.00000E+000	  0.00000E+000
  3.07200E-001	  2.60906E-001	  2.59696E-001	  0.00000E+000	  0.00000E+000
  3.32800E-001	  2.48605E-001	  2.45186E-001	  0.00000E+000	  0.00000E+000
  3.58400E-001	  2.36116E-001	  2.33251E-001	  0.00000E+000	  0.00000E+000
  3.84000E-001	  2.29095E-001	  2.23499E-001	  0.00000E+000	  0.00000E+000
  4.09600E-001	  2.17576E-001	  2.14494E-001	  0.00000E+000	  0.00000E+000
  4.60800E-001	  1.97268E-001	  1.96830E-001	  0.00000E+000	  0.00000E+000
  5.12000E-001	  1.83749E-001	  1.84309E-001	  0.00000E+000	  0.00000E+000
  5.63200E-001	  1.70273E-001	  1.70250E-001	  0.00000E+000	  0.00000E+000
  6.14400E-001	  1.60066E-001	  1.59519E-001	  0.00000E+000	  0.00000E+000
  6.65600E-001	  1.50442E-001	  1.51264E-001	  0.00000E+000	  0.00000E+000
  7.16800E-001	  1.42903E-001	  1.42587E-001	  0.00000E+000	  0.00000E+000
  7.68000E-001	  1.34568E-001	  1.36815E-001	  0.00000E+000	  0.00000E+000
  8.19200E-001	  1.27602E-001	  1.32306E-001	  0.00000E+000	  0.00000E+000
  9.21600E-001	  1.17839E-001	  1.18621E-001	  0.00000E+000	  0.00000E+000
  1.02400E+000	  1.07812E-001	  1.08380E-001	  0.00000E+000	  0.00000E+000
  1.12640E+000	  9.57017E-002	  1.00480E-001	  0.00000E+000	  0.00000E+000
  1.22880E+000	  8.66662E-002	  9.20988E-002	  0.00000E+000	  0.00000E+000
  1.33120E+000	  7.91936E-002	  8.49793E-002	  0.00000E+000	  0.00000E+000
  1.43360E+000	  7.55073E-002	  7.77597E-002	  0.00000E+000	  0.00000E+000
  1.53600E+000	  7.28099E-002	  7.55945E-002	  0.00000E+000	  0.00000E+000
  1.63840E+000	  7.22174E-002	  7.19675E-002	  0.00000E+000	  0.00000E+000
  1.84320E+000	  6.53722E-002	  6.50415E-002	  0.00000E+000	  0.00000E+000
  2.04800E+000	  5.65950E-002	  5.69914E-002	  0.00000E+000	  0.00000E+000
  2.25280E+000	  5.13712E-002	  5.28915E-002	  0.00000E+000	  0.00000E+000
  2.45760E+000	  4.62121E-002	  4.56480E-002	  0.00000E+000	  0.00000E+000
  2.66240E+000	  4.29544E-002	  4.03365E-002	  0.00000E+000	  0.00000E+000
  2.86720E+000	  4.10555E-002	  3.91061E-002	  0.00000E+000	  0.00000E+000
  3.07200E+000	  3.78541E-002	  3.52415E-002	  0.00000E+000	  0.00000E+000
  3.27680E+000	  3.42594E-002	  3.23651E-002	  0.00000E+000	  0.00000E+000
  3.68640E+000	  2.88343E-002	  2.86335E-002	  0.00000E+000	  0.00000E+000
  4.09600E+000	  2.70419E-002	  2.23270E-002	  0.00000E+000	  0.00000E+000
  4.50560E+000	  2.75333E-002	  2.33038E-002	  0.00000E+000	  0.00000E+000
  4.91520E+000	  2.31084E-002	  1.80348E-002	  0.00000E+000	  0.00000E+000
  5.32480E+000	  2.00835E-002	  1.63143E-002	  0.00000E+000	  0.00000E+000
  5.73440E+000	  1.81905E-002	  1.71236E-002	  0.00000E+000	  0.00000E+000
  6.14400E+000	  1.73984E-002	  1.65814E-002	  0.00000E+000	  0.00000E+000
  6.55360E+000	  1.23494E-002	  1.45779E-002	  0.00000E+000	  0.00000E+000
  7.37280E+000	  8.98126E-003	  1.50158E-002	  0.00000E+000	  0.00000E+000
  8.19200E+000	  7.16362E-003	  1.46596E-002	  0.00000E+000	  0.00000E+000
  9.01120E+000	  8.98813E-003	  1.19466E-002	  0.00000E+000	  0.00000E+000
  9.83040E+000	  1.27211E-002	  1.31600E-002	  0.00000E+000	  0.00000E+000
  1.06496E+001	  1.12723E-002	  1.23902E-002	  0.00000E+000	  0.00000E+000
  1.14688E+001	  1.09272E-002	  1.05069E-002	  0.00000E+000	  0.00000E+000
  1.22880E+001	  8.61702E-003	  8.82383E-003	  0.00000E+000	  0.00000E+000
  1.31072E+001	  4.46344E-003	  6.55493E-003	  0.00000E+000	  0.00000E+000
  1.47456E+001	  2.84823E-003	  3.44622E-003	  0.00000E+000	  0.00000E+000
  1.63840E+001	  8.69260E-003	  5.96824E-003	  0.00000E+000	  0.00000E+000
  1.80224E+001	  7.23912E-003	  5.02352E-003	  0.00000E+000	  0.00000E+000
  1.96608E+001	  7.09307E-003	  3.44957E-003	  0.00000E+000	  0.00000E+000
  2.12992E+001	  2.13591E-003	  3.25104E-003	  0.00000E+000	  0.00000E+000
  2.29376E+001	  7.31655E-003	  3.27914E-003	  0.00000E+000	  0.00000E+000
  2.45760E+001	  5.94085E-003	  1.46256E-003	  0.00000E+000	  0.00000E+000
  2.62144E+001	  2.93555E-003	  3.54334E-003	  0.00000E+000	  0.00000E+000
  2.94912E+001	  3.67445E-003	  4.81373E-003	  0.00000E+000	  0.00000E+000
  3.27680E+001	  5.89879E-003	  3.05679E-003	  0.00000E+000	  0.00000E+000
  3.60448E+001	  5.25313E-003	  6.39776E-003	  0.00000E+000	  0.00000E+000
  3.93216E+001	  7.05332E-004	  2.55234E-003	  0.00000E+000	  0.00000E+000
  4.25984E+001	 -2.10580E-005	  7.25167E-004	  0.00000E+000	  0.00000E+000
  4.58752E+001	  2.00457E-003	  5.06728E-003	  0.00000E+000	  0.00000E+000
  4.91520E+001	  1.12547E-003	  3.59945E-003	  0.00000E+000	  0.00000E+000
  5.24288E+001	  2.43621E-003	  3.98520E-003	  0.00000E+000	  0.00000E+000
  5.89824E+001	  1.55929E-004	  3.22777E-003	  0.00000E+000	  0.00000E+000
  6.55360E+001	  4.10043E-003	  5.24326E-003	  0.00000E+000	  0.00000E+000
  7.20896E+001	  2.75290E-003	  1.84980E-004	  0.00000E+000	  0.00000E+000
  7.86432E+001	  2.74543E-003	  1.77721E-003	  0.00000E+000	  0.00000E+000
  8.51968E+001	  9.40442E-004	 -8.29934E-005	  0.00000E+000	  0.00000E+000
  9.17504E+001	  9.13980E-004	 -2.30088E-003	  0.00000E+000	  0.00000E+000
  9.83040E+001	 -7.13677E-004	 -3.63461E-003	  0.00000E+000	  0.00000E+000
  1.04858E+002	  2.27675E-003	  1.08757E-003	  0.00000E+000	  0.00000E+000
  1.17965E+002	  3.75046E-003	  3.87799E-003	  0.00000E+000	  0.00000E+000
  1.31072E+002	  9.00065E-004	  8.35026E-004	  0.00000E+000	  0.00000E+000
  1.44179E+002	  2.99482E-003	  1.17934E-003	  0.00000E+000	  0.00000E+000
  1.57286E+002	  2.41817E-003	  2.22187E-003	  0.00000E+000	  0.00000E+000
  1.70394E+002	 -4.14877E-004	  7.09035E-004	  0.00000E+000	  0.00000E+000
  1.83501E+002	  1.61709E-003	  2.36584E-003	  0.00000E+000	  0.00000E+000
  1.96608E+002	  1.71960E-003	  1.50320E-003	  0.00000E+000	  0.00000E+000
  2.09715E+002	 -1.50861E-003	  6.37013E-004	  0.00000E+000	  0.00000E+000
  2.35930E+002	 -1.40538E-004	  3.44080E-005	  0.00000E+000	  0.00000E+000
  2.62144E+002	  1.80035E-004	  1.46586E-004	  0.00000E+000	  0.00000E+000
  2.88358E+002	 -1.23941E-003	  1.97494E-004	  0.00000E+000	  0.00000E+000
  3.14573E+002	  1.77287E-003	  1.54011E-003	  0.00000E+000	  0.00000E+000
  3.40787E+002	  5.79424E-004	 -2.98476E-004	  0.00000E+000	  0.00000E+000
  3.67002E+002	 -1.75655E-003	 -1.47360E-003	  0.00000E+000	  0.00000E+000
  3.93216E+002	 -3.74436E-004	 -3.48161E-004	  0.00000E+000	  0.00000E+000
  4.19430E+002	 -1.15498E-003	 -1.06053E-003	  0.00000E+000	  0.00000E+000
  4.71859E+002	  2.96090E-005	 -4.63399E-004	  0.00000E+000	  0.00000E+000
  5.24288E+002	 -8.18413E-004	 -2.76681E-004	  0.00000E+000	  0.00000E+000
  5.76717E+002	  7.20898E-004	  1.76312E-003	  0.00000E+000	  0.00000E+000
  6.29146E+002	 -1.23339E-003	 -1.22886E-003	  0.00000E+000	  0.00000E+000
  6.81574E+002	 -2.65141E-004	 -1.50742E-003	  0.00000E+000	  0.00000E+000
  7.34003E+002	 -4.76669E-004	  3.43312E-004	  0.00000E+000	  0.00000E+000
  7.86432E+002	  2.80882E-004	 -6.55356E-004	  0.00000E+000	  0.00000E+000
  8.38861E+002	  1.51442E-003	  4.28565E-004	  0.00000E+000	  0.00000E+000
  9.43718E+002	  3.16679E-004	 -7.01543E-004	  0.00000E+000	  0.00000E+000
  1.04858E+003	 -1.27809E-003	 -1.58282E-003	  0.00000E+000	  0.00000E+000
  1.15343E+003	  8.95747E-004	  4.70734E-004	  0.00000E+000	  0.00000E+000
  1.25829E+003	  7.54338E-004	  1.03549E-003	  0.00000E+000	  0.00000E+000
  1.36315E+003	  1.30567E-003	  1.53404E-003	  0.00000E+000	  0.00000E+000
  1.46801E+003	  1.12056E-003	  2.50743E-004	  0.00000E+000	  0.00000E+000
  1.57286E+003	 -5.39799E-004	 -9.09668E-004	  0.00000E+000	  0.00000E+000
  1.67772E+003	  2.20431E-004	 -7.06780E-004	  0.00000E+000	  0.00000E+000
  1.88744E+003	 -8.75511E-004	 -5.92102E-004	  0.00000E+000	  0.00000E+000
  2.09715E+003	  6.09394E-004	  8.62159E-004	  0.00000E+000	  0.00000E+000
  2.30687E+003	  9.15409E-004	 -1.06758E-005	  0.00000E+000	  0.00000E+000
  2.51658E+003	 -5.40116E-004	 -7.67476E-004	  0.00000E+000	  0.00000E+000
  2.72630E+003	 -6.97923E-004	 -6.00385E-004	  0.00000E+000	  0.00000E+000
  2.93601E+003	 -5.86844E-004	 -4.45958E-004	  0.00000E+000	  0.00000E+000
  3.14573E+003	  1.97466E-004	 -6.97771E-004	  0.00000E+000	  0.00000E+000
  3.35544E+003	  4.11933E-004	  1.82829E-004	  0.00000E+000	  0.00000E+000
  3.77487E+003	  6.52059E-004	  3.91786E-004	  0.00000E+000	  0.00000E+000
  4.19430E+003	  8.49005E-006	 -6.88759E-005	  0.00000E+000	  0.00000E+000
  4.61373E+003	 -1.34382E-004	 -1.56257E-004	  0.00000E+000	  0.00000E+000
  5.03317E+003	 -6.43529E-004	 -7.77553E-004	  0.00000E+000	  0.00000E+000
  5.45260E+003	 -7.44270E-004	 -3.59783E-004	  0.00000E+000	  0.00000E+000
  5.87203E+003	 -7.59541E-004	 -6.28121E-004	  0.00000E+000	  0.00000E+000
  6.29146E+003	 -5.34030E-004	  3.68369E-004	  0.00000E+000	  0.00000E+000
  6.71089E+003	  3.71013E-004	  1.44302E-003	  0.00000E+000	  0.00000E+000
  7.54975E+003	  8.53743E-004	  9.90387E-004	  0.00000E+000	  0.00000E+000
  8.38861E+003	  2.18757E-004	 -1.73091E-004	  0.00000E+000	  0.00000E+000
  9.22747E+003	 -7.99159E-004	 -1.25900E-003	  0.00000E+000	  0.00000E+000
  1.00663E+004	  3.64195E-004	  1.81526E-003	  0.00000E+000	  0.00000E+000
  1.09052E+004	 -2.25331E-004	 -1.04966E-003	  0.00000E+000	  0.00000E+000
  1.17441E+004	  5.86431E-004	  1.01214E-003	  0.00000E+000	  0.00000E+000
  1.25829E+004	 -1.41781E-003	 -1.74468E-003	  0.00000E+000	  0.00000E+000

"Count Rate"
       0.11719	      51.87882	      33.37015	       0.00000	       0.00000
       0.23438	      45.89673	      30.17459	       0.00000	       0.00000
       0.35156	      47.03009	      32.31348	       0.00000	       0.00000
       0.46875	      47.45617	      33.25937	       0.00000	       0.00000
       0.58594	      46.20351	      34.06039	       0.00000	       0.00000
       0.70313	      44.97641	      27.82266	       0.00000	       0.00000
       0.82031	      35.96920	      27.92492	       0.00000	       0.00000
       0.93750	      41.33774	      27.83118	       0.00000	       0.00000
       1.05469	      45.96490	      29.00714	       0.00000	       0.00000
       1.17188	      43.79193	      28.14647	       0.00000	       0.00000
       1.28906	      46.33133	      29.84225	       0.00000	       0.00000
       1.40625	      35.20227	      24.64414	       0.00000	       0.00000
       1.52344	      46.31429	      31.12900	       0.00000	       0.00000
       1.64063	      50.22565	      32.14305	       0.00000	       0.00000
       1.75781	      50.30234	      32.96112	       0.00000	       0.00000
       1.87500	      52.90992	      35.29600	       0.00000	       0.00000
       1.99219	      53.91545	      31.49542	       0.00000	       0.00000
       2.10938	      45.05311	      28.18056	       0.00000	       0.00000
       2.22656	      51.27379	      33.42128	       0.00000	       0.00000
       2.34375	      32.47539	      23.43409	       0.00000	       0.00000
       2.46094	      48.94743	      33.24232	       0.00000	       0.00000
       2.57813	      44.67816	      26.08427	       0.00000	       0.00000
       2.69531	      39.76978	      28.95602	       0.00000	       0.00000
       2.81250	      44.20096	      26.91086	       0.00000	       0.00000
       2.92969	      45.80300	      29.33948	       0.00000	       0.00000
       3.04688	      47.21756	      30.53249	       0.00000	       0.00000
       3.16406	      47.52434	      32.34757	       0.00000	       0.00000
       3.28125	      47.29426	      29.70591	       0.00000	       0.00000
       3.39844	      49.50132	      31.36760	       0.00000	       0.00000
       3.51563	      53.90693	      32.97816	       0.00000	       0.00000
       3.63281	      51.21414	      29.85929	       0.00000	       0.00000
       3.75000	      44.78042	      28.01865	       0.00000	       0.00000
       3.86719	      59.66746	      32.67990	       0.00000	       0.00000
       3.98438	      57.04284	      36.43788	       0.00000	       0.00000
       4.10156	      58.36367	      35.53460	       0.00000	       0.00000
       4.21875	      45.09571	      30.32798	       0.00000	       0.00000
       4.33594	      44.54182	      28.20613	       0.00000	       0.00000
       4.45313	      40.40038	      29.87634	       0.00000	       0.00000
       4.57031	      39.79535	      27.52441	       0.00000	       0.00000
       4.68750	      54.41822	      35.68799	       0.00000	       0.00000
       4.80469	      48.12084	      31.99819	       0.00000	       0.00000
       4.92188	      45.76039	      28.35951	       0.00000	       0.00000
       5.03906	      53.18261	      33.50649	       0.00000	       0.00000
       5.15625	      49.97853	      30.91596	       0.00000	       0.00000
       5.27344	      49.13490	      30.00416	       0.00000	       0.00000
       5.39063	      52.07481	      34.36716	       0.00000	       0.00000
       5.50781	      50.72842	      32.18566	       0.00000	       0.00000
       5.62500	      53.60016	      34.34159	       0.00000	       0.00000
       5.74219	      50.59208	      33.06337	       0.00000	       0.00000
       5.85938	      46.86818	      31.43577	       0.00000	       0.00000
       5.97656	      45.33432	      28.99862	       0.00000	       0.00000
       6.09375	      44.38843	      31.58916	       0.00000	       0.00000
       6.21094	      48.42762	      29.37357	       0.00000	       0.00000
       6.32813	      49.56950	      33.03781	       0.00000	       0.00000
       6.44531	      45.06163	      28.33395	       0.00000	       0.00000
       6.56250	      48.73439	      30.85631	       0.00000	       0.00000
       6.67969	      60.57074	      37.58828	       0.00000	       0.00000
       6.79688	      44.91676	      27.98457	       0.00000	       0.00000
       6.91406	      40.80941	      28.93897	       0.00000	       0.00000
       7.03125	      39.42892	      24.02207	       0.00000	       0.00000
       7.14844	      44.40547	      27.47328	       0.00000	       0.00000
       7.26563	      47.90781	      33.67692	       0.00000	       0.00000
       7.38281	      49.73140	      32.01523	       0.00000	       0.00000
       7.50000	      53.97511	      33.49797	       0.00000	       0.00000
       7.61719	      48.71735	      30.85631	       0.00000	       0.00000
       7.73438	      44.03053	      30.02972	       0.00000	       0.00000
       7.85156	      47.66068	      31.98967	       0.00000	       0.00000
       7.96875	      62.79485	      39.36927	       0.00000	       0.00000
       8.08594	      46.68071	      33.79622	       0.00000	       0.00000
       8.20313	      43.38290	      31.59768	       0.00000	       0.00000
       8.32031	      35.59425	      26.39105	       0.00000	       0.00000
       8.43750	      39.89761	      24.65266	       0.00000	       0.00000
       8.55469	      47.03861	      33.36163	       0.00000	       0.00000
       8.67188	      46.35690	      33.08042	       0.00000	       0.00000
       8.78906	      51.70839	      34.77619	       0.00000	       0.00000
       8.90625	      67.43053	      38.87503	       0.00000	       0.00000
       9.02344	      52.73097	      34.26490	       0.00000	       0.00000
       9.14063	      44.72929	      31.06935	       0.00000	       0.00000
       9.25781	      50.88181	      32.80773	       0.00000	       0.00000
       9.37500	      42.73526	      27.03868	       0.00000	       0.00000
       9.49219	      51.52944	      30.77109	       0.00000	       0.00000
       9.60938	      45.59848	      29.36505	       0.00000	       0.00000
       9.72656	      43.50220	      30.54101	       0.00000	       0.00000
       9.84375	      42.20693	      28.98158	       0.00000	       0.00000
       9.96094	      42.60744	      27.21763	       0.00000	       0.00000
      10.07813	      58.42332	      34.65689	       0.00000	       0.00000
      10.19531	      39.76978	      26.61261	       0.00000	       0.00000
      10.31250	      50.44721	      31.75106	       0.00000	       0.00000
      10.42969	      42.34327	      27.89935	       0.00000	       0.00000
      10.54688	      43.84306	      28.54698	       0.00000	       0.00000
      10.66406	      36.79578	      27.37102	       0.00000	       0.00000
      10.78125	      43.30620	      30.42171	       0.00000	       0.00000
      10.89844	      39.77831	      31.56359	       0.00000	       0.00000
      11.01563	      45.30023	      32.54356	       0.00000	       0.00000
      11.13281	      49.54393	      32.58617	       0.00000	       0.00000
      11.25000	      46.25463	      31.33351	       0.00000	       0.00000
      11.36719	      61.45697	      37.27299	       0.00000	       0.00000
      11.48438	      45.91378	      32.82477	       0.00000	       0.00000
      11.60156	      42.14728	      28.55551	       0.00000	       0.00000
      11.71875	      44.88268	      32.26235	       0.00000	       0.00000
      11.83594	      46.91931	      30.43023	       0.00000	       0.00000
      11.95313	      44.66112	      28.91341	       0.00000	       0.00000
      12.07031	      49.81662	      30.37058	       0.00000	       0.00000
      12.18750	      64.19237	      39.84648	       0.00000	       0.00000
      12.30469	      49.91888	      34.31603	       0.00000	       0.00000
      12.42188	      49.34794	      32.92703	       0.00000	       0.00000
      12.53906	      40.11916	      28.64072	       0.00000	       0.00000
      12.65625	      42.47110	      29.48435	       0.00000	       0.00000
      12.77344	      51.41014	      33.68544	       0.00000	       0.00000
      12.89063	      44.26061	      30.23424	       0.00000	       0.00000
      13.00781	      52.66280	      33.27641	       0.00000	       0.00000
      13.12500	      53.31895	      35.12557	       0.00000	       0.00000
      13.24219	      49.23716	      31.48690	       0.00000	       0.00000
      13.35938	      46.51028	      29.07532	       0.00000	       0.00000
      13.47656	      51.97255	      36.30154	       0.00000	       0.00000
      13.59375	      46.29725	      32.62878	       0.00000	       0.00000
      13.71094	      50.50686	      31.81924	       0.00000	       0.00000
      13.82813	      49.71436	      32.47539	       0.00000	       0.00000
      13.94531	      56.22478	      34.78471	       0.00000	       0.00000
      14.06250	      39.77831	      26.60409	       0.00000	       0.00000
      14.17969	      47.67773	      31.69994	       0.00000	       0.00000
      14.29688	      44.29469	      30.67736	       0.00000	       0.00000
      14.41406	      49.07525	      30.17459	       0.00000	       0.00000
      14.53125	      49.83366	      29.13497	       0.00000	       0.00000
      14.64844	      43.04203	      26.30583	       0.00000	       0.00000
      14.76563	      43.18690	      28.91341	       0.00000	       0.00000
      14.88281	      46.92783	      29.85929	       0.00000	       0.00000
      15.00000	      39.53970	      25.82863	       0.00000	       0.00000
      15.11719	      38.09957	      27.47328	       0.00000	       0.00000
      15.23438	      60.55369	      36.05442	       0.00000	       0.00000
      15.35156	      53.83024	      37.05143	       0.00000	       0.00000
      15.46875	      44.92529	      30.81370	       0.00000	       0.00000
      15.58594	      57.80977	      36.44640	       0.00000	       0.00000
      15.70313	      52.90140	      32.94407	       0.00000	       0.00000
      15.82031	      57.94612	      37.04291	       0.00000	       0.00000
      15.93750	      40.92019	      25.67524	       0.00000	       0.00000
      16.05469	      52.24524	      31.01822	       0.00000	       0.00000
      16.17188	      49.79105	      30.55806	       0.00000	       0.00000
      16.28906	      40.52820	      26.30583	       0.00000	       0.00000
      16.40625	      47.98450	      31.38464	       0.00000	       0.00000
      16.52344	      41.18435	      28.76854	       0.00000	       0.00000
      16.64063	      49.61210	      32.01523	       0.00000	       0.00000
      16.75781	      39.83796	      27.84822	       0.00000	       0.00000
      16.87500	      36.99178	      26.37400	       0.00000	       0.00000
      16.99219	      46.41655	      29.85077	       0.00000	       0.00000
      17.10938	      40.05099	      24.31181	       0.00000	       0.00000
      17.22656	      54.52048	      33.06337	       0.00000	       0.00000
      17.34375	      44.63556	      30.43876	       0.00000	       0.00000
      17.46094	      52.50941	      32.19418	       0.00000	       0.00000
      17.57813	      45.99899	      31.13752	       0.00000	       0.00000
      17.69531	      36.99178	      27.15798	       0.00000	       0.00000
      17.81250	      42.42849	      32.48391	       0.00000	       0.00000
      17.92969	      44.95085	      28.57255	       0.00000	       0.00000
      18.04688	      43.74932	      25.70933	       0.00000	       0.00000
      18.16406	      43.58741	      29.75704	       0.00000	       0.00000
      18.28125	      38.63643	      26.16949	       0.00000	       0.00000
      18.39844	      44.93381	      29.87634	       0.00000	       0.00000
      18.51563	      38.41487	      27.86526	       0.00000	       0.00000
      18.63281	      46.22907	      31.81924	       0.00000	       0.00000
      18.75000	      44.06461	      31.03526	       0.00000	       0.00000
      18.86719	      43.06760	      30.76257	       0.00000	       0.00000
      18.98438	      47.27721	      30.68588	       0.00000	       0.00000
      19.10156	      42.24954	      29.08384	       0.00000	       0.00000
      19.21875	      53.31043	      34.71654	       0.00000	       0.00000
      19.33594	      40.90314	      29.29688	       0.00000	       0.00000
      19.45313	      46.57845	      34.07743	       0.00000	       0.00000
      19.57031	      44.12426	      29.28835	       0.00000	       0.00000
      19.68750	      45.19797	      30.53249	       0.00000	       0.00000
      19.80469	      45.41953	      31.55507	       0.00000	       0.00000
      19.92188	      38.31261	      28.64072	       0.00000	       0.00000
      20.03906	      44.32878	      28.32543	       0.00000	       0.00000
      20.15625	      70.38749	      44.46512	       0.00000	       0.00000
      20.27344	      49.89331	      31.58064	       0.00000	       0.00000
      20.39063	      44.59295	      32.67138	       0.00000	       0.00000
      20.50781	      43.28064	      29.09236	       0.00000	       0.00000
      20.62500	      46.63810	      33.36163	       0.00000	       0.00000
      20.74219	      44.53329	      32.02375	       0.00000	       0.00000
      20.85938	      44.10722	      31.29090	       0.00000	       0.00000
      20.97656	      47.42208	      28.94749	       0.00000	       0.00000
      21.09375	      45.02754	      29.50139	       0.00000	       0.00000
      21.21094	      48.07824	      32.53504	       0.00000	       0.00000
      21.32813	      51.97255	      31.97262	       0.00000	       0.00000
      21.44531	      49.16899	      32.78217	       0.00000	       0.00000
      21.56250	      58.50002	      34.48646	       0.00000	       0.00000
      21.67969	      45.20649	      30.79666	       0.00000	       0.00000
      21.79688	      45.04459	      28.80263	       0.00000	       0.00000
      21.91406	      43.95383	      29.04975	       0.00000	       0.00000
      22.03125	      40.15325	      28.64072	       0.00000	       0.00000
      22.14844	      46.59550	      32.91851	       0.00000	       0.00000
      22.26563	      56.25034	      32.99520	       0.00000	       0.00000
      22.38281	      47.43913	      30.88187	       0.00000	       0.00000
      22.50000	      47.38799	      29.38209	       0.00000	       0.00000
      22.61719	      49.36498	      31.87037	       0.00000	       0.00000
      22.73438	      47.91633	      30.92448	       0.00000	       0.00000
      22.85156	      45.52179	      32.69695	       0.00000	       0.00000
      22.96875	      60.26396	      37.48603	       0.00000	       0.00000
      23.08594	      46.71480	      28.87932	       0.00000	       0.00000
      23.20313	      35.90103	      25.52186	       0.00000	       0.00000
      23.32031	      53.30191	      33.02929	       0.00000	       0.00000
      23.43750	      54.52048	      31.69994	       0.00000	       0.00000
      23.55469	      47.54990	      30.96709	       0.00000	       0.00000
      23.67188	      47.13235	      31.54655	       0.00000	       0.00000
      23.78906	      60.73264	      36.38675	       0.00000	       0.00000
      23.90625	      52.24524	      34.63133	       0.00000	       0.00000
      24.02344	      44.72929	      30.53249	       0.00000	       0.00000
      24.14063	      57.30701	      36.04589	       0.00000	       0.00000
      24.25781	      53.85580	      37.92914	       0.00000	       0.00000
      24.37500	      54.67387	      35.01479	       0.00000	       0.00000
      24.49219	      44.19244	      31.63176	       0.00000	       0.00000
      24.60938	      56.39521	      32.96112	       0.00000	       0.00000
      24.72656	      51.54648	      31.27386	       0.00000	       0.00000
      24.84375	      45.30875	      30.20015	       0.00000	       0.00000
      24.96094	      48.67474	      32.33052	       0.00000	       0.00000
      25.07813	      35.38974	      24.43963	       0.00000	       0.00000
      25.19531	      43.90271	      31.01822	       0.00000	       0.00000
      25.31250	      52.36454	      31.90445	       0.00000	       0.00000
      25.42969	      52.67132	      31.71698	       0.00000	       0.00000
      25.54688	      54.52048	      33.11450	       0.00000	       0.00000
      25.66406	      40.30664	      29.74851	       0.00000	       0.00000
      25.78125	      40.45150	      26.10984	       0.00000	       0.00000
      25.89844	      51.36753	      34.83584	       0.00000	       0.00000
      26.01563	      53.12296	      34.39273	       0.00000	       0.00000
      26.13281	      53.92398	      32.83329	       0.00000	       0.00000
      26.25000	      49.71436	      31.14604	       0.00000	       0.00000
      26.36719	      45.86265	      27.70336	       0.00000	       0.00000
      26.48438	      48.01006	      31.77663	       0.00000	       0.00000
      26.60156	      43.59593	      28.45325	       0.00000	       0.00000
      26.71875	      47.51582	      30.93300	       0.00000	       0.00000
      26.83594	      43.00795	      28.13795	       0.00000	       0.00000
      26.95313	      43.76636	      28.94749	       0.00000	       0.00000
      27.07031	      61.26950	      36.29302	       0.00000	       0.00000
      27.18750	      52.72245	      32.77364	       0.00000	       0.00000
      27.30469	      51.98108	      36.27597	       0.00000	       0.00000
      27.42188	      52.35602	      34.64837	       0.00000	       0.00000
      27.53906	      49.14342	      33.12302	       0.00000	       0.00000
      27.65625	      56.15660	      36.71909	       0.00000	       0.00000
      27.77344	      41.60191	      31.73402	       0.00000	       0.00000
      27.89063	      50.85624	      36.77022	       0.00000	       0.00000
      28.00781	      39.90613	      28.25725	       0.00000	       0.00000
      28.12500	      40.52820	      26.10984	       0.00000	       0.00000
      28.24219	      55.05733	      36.71909	       0.00000	       0.00000
      28.35938	      54.92951	      34.84436	       0.00000	       0.00000
      28.47656	      44.18391	      31.45281	       0.00000	       0.00000
      28.59375	      47.88224	      27.37102	       0.00000	       0.00000
      28.71094	      53.17408	      34.61428	       0.00000	       0.00000
      28.82813	      49.27977	      29.73147	       0.00000	       0.00000
      28.94531	      50.51538	      32.95259	       0.00000	       0.00000
      29.06250	      48.32536	      31.35908	       0.00000	       0.00000
      29.17969	      47.89076	      30.78814	       0.00000	       0.00000
      29.29688	      44.80598	      31.00970	       0.00000	       0.00000
      29.41406	      44.68668	      30.37058	       0.00000	       0.00000
      29.53125	      54.76760	      32.90998	       0.00000	       0.00000
      29.64844	      60.26396	      39.38632	       0.00000	       0.00000
      29.76563	      50.24269	      29.72295	       0.00000	       0.00000

Monitor Diode	      1.00
